#  E (eV)   dos(E)     Int dos(E)
 -5.736  0.0000E+00  0.0000E+00
 -5.726  0.5844E-03  0.5844E-05
 -5.716  0.2337E-02  0.2922E-04
 -5.706  0.5259E-02  0.8181E-04
 -5.696  0.9350E-02  0.1753E-03
 -5.686  0.1461E-01  0.3214E-03
 -5.676  0.2104E-01  0.5318E-03
 -5.666  0.2863E-01  0.8181E-03
 -5.656  0.3740E-01  0.1192E-02
 -5.646  0.4733E-01  0.1665E-02
 -5.636  0.1171E+00  0.2837E-02
 -5.626  0.1378E+00  0.4215E-02
 -5.616  0.9795E-01  0.5194E-02
 -5.606  0.8921E-01  0.6086E-02
 -5.596  0.9406E-01  0.7027E-02
 -5.586  0.9902E-01  0.8017E-02
 -5.576  0.1041E+00  0.9058E-02
 -5.566  0.1092E+00  0.1015E-01
 -5.556  0.1145E+00  0.1129E-01
 -5.546  0.1198E+00  0.1249E-01
 -5.536  0.1253E+00  0.1375E-01
 -5.526  0.1308E+00  0.1505E-01
 -5.516  0.1365E+00  0.1642E-01
 -5.506  0.1423E+00  0.1784E-01
 -5.496  0.1481E+00  0.1932E-01
 -5.486  0.1566E+00  0.2089E-01
 -5.476  0.1651E+00  0.2254E-01
 -5.466  0.1726E+00  0.2427E-01
 -5.456  0.1791E+00  0.2606E-01
 -5.446  0.1845E+00  0.2790E-01
 -5.436  0.1890E+00  0.2979E-01
 -5.426  0.1925E+00  0.3172E-01
 -5.416  0.1951E+00  0.3367E-01
 -5.406  0.1966E+00  0.3564E-01
 -5.396  0.1908E+00  0.3754E-01
 -5.386  0.1860E+00  0.3940E-01
 -5.376  0.1858E+00  0.4126E-01
 -5.366  0.1888E+00  0.4315E-01
 -5.356  0.1918E+00  0.4507E-01
 -5.346  0.1950E+00  0.4702E-01
 -5.336  0.1983E+00  0.4900E-01
 -5.326  0.2017E+00  0.5102E-01
 -5.316  0.2051E+00  0.5307E-01
 -5.306  0.2087E+00  0.5516E-01
 -5.296  0.2123E+00  0.5728E-01
 -5.286  0.2160E+00  0.5944E-01
 -5.276  0.2199E+00  0.6164E-01
 -5.266  0.2238E+00  0.6387E-01
 -5.256  0.2278E+00  0.6615E-01
 -5.246  0.2318E+00  0.6847E-01
 -5.236  0.2359E+00  0.7083E-01
 -5.226  0.2400E+00  0.7323E-01
 -5.216  0.2441E+00  0.7567E-01
 -5.206  0.2483E+00  0.7815E-01
 -5.196  0.2524E+00  0.8068E-01
 -5.186  0.2565E+00  0.8324E-01
 -5.176  0.2607E+00  0.8585E-01
 -5.166  0.2648E+00  0.8850E-01
 -5.156  0.2677E+00  0.9118E-01
 -5.146  0.2693E+00  0.9387E-01
 -5.136  0.2696E+00  0.9656E-01
 -5.126  0.2712E+00  0.9928E-01
 -5.116  0.2733E+00  0.1020E+00
 -5.106  0.2754E+00  0.1048E+00
 -5.096  0.2774E+00  0.1075E+00
 -5.086  0.2793E+00  0.1103E+00
 -5.076  0.2812E+00  0.1131E+00
 -5.066  0.2831E+00  0.1160E+00
 -5.056  0.2849E+00  0.1188E+00
 -5.046  0.2866E+00  0.1217E+00
 -5.036  0.2883E+00  0.1246E+00
 -5.026  0.2900E+00  0.1275E+00
 -5.016  0.2913E+00  0.1304E+00
 -5.006  0.2920E+00  0.1333E+00
 -4.996  0.2930E+00  0.1362E+00
 -4.986  0.2943E+00  0.1392E+00
 -4.976  0.2958E+00  0.1421E+00
 -4.966  0.2977E+00  0.1451E+00
 -4.956  0.2997E+00  0.1481E+00
 -4.946  0.3021E+00  0.1511E+00
 -4.936  0.3048E+00  0.1542E+00
 -4.926  0.3076E+00  0.1573E+00
 -4.916  0.3107E+00  0.1604E+00
 -4.906  0.3139E+00  0.1635E+00
 -4.896  0.3171E+00  0.1667E+00
 -4.886  0.3203E+00  0.1699E+00
 -4.876  0.3235E+00  0.1731E+00
 -4.866  0.3268E+00  0.1764E+00
 -4.856  0.3301E+00  0.1797E+00
 -4.846  0.3334E+00  0.1830E+00
 -4.836  0.3367E+00  0.1864E+00
 -4.826  0.3401E+00  0.1898E+00
 -4.816  0.3434E+00  0.1932E+00
 -4.806  0.3468E+00  0.1967E+00
 -4.796  0.3502E+00  0.2002E+00
 -4.786  0.3536E+00  0.2037E+00
 -4.776  0.3569E+00  0.2073E+00
 -4.766  0.3598E+00  0.2109E+00
 -4.756  0.3623E+00  0.2145E+00
 -4.746  0.3644E+00  0.2182E+00
 -4.736  0.3661E+00  0.2218E+00
 -4.726  0.3674E+00  0.2255E+00
 -4.716  0.3683E+00  0.2292E+00
 -4.706  0.3689E+00  0.2329E+00
 -4.696  0.3690E+00  0.2366E+00
 -4.686  0.3694E+00  0.2402E+00
 -4.676  0.3726E+00  0.2440E+00
 -4.666  0.3745E+00  0.2477E+00
 -4.656  0.3765E+00  0.2515E+00
 -4.646  0.3784E+00  0.2553E+00
 -4.636  0.3804E+00  0.2591E+00
 -4.626  0.3823E+00  0.2629E+00
 -4.616  0.3843E+00  0.2667E+00
 -4.606  0.3863E+00  0.2706E+00
 -4.596  0.3883E+00  0.2745E+00
 -4.586  0.3903E+00  0.2784E+00
 -4.576  0.3923E+00  0.2823E+00
 -4.566  0.3943E+00  0.2862E+00
 -4.556  0.3964E+00  0.2902E+00
 -4.546  0.3984E+00  0.2942E+00
 -4.536  0.4004E+00  0.2982E+00
 -4.526  0.4024E+00  0.3022E+00
 -4.516  0.4043E+00  0.3063E+00
 -4.506  0.4062E+00  0.3103E+00
 -4.496  0.4082E+00  0.3144E+00
 -4.486  0.4101E+00  0.3185E+00
 -4.476  0.4118E+00  0.3226E+00
 -4.466  0.4135E+00  0.3268E+00
 -4.456  0.4155E+00  0.3309E+00
 -4.446  0.4177E+00  0.3351E+00
 -4.436  0.4201E+00  0.3393E+00
 -4.426  0.4227E+00  0.3435E+00
 -4.416  0.4253E+00  0.3478E+00
 -4.406  0.4280E+00  0.3521E+00
 -4.396  0.4308E+00  0.3564E+00
 -4.386  0.4336E+00  0.3607E+00
 -4.376  0.4365E+00  0.3651E+00
 -4.366  0.4394E+00  0.3695E+00
 -4.356  0.4425E+00  0.3739E+00
 -4.346  0.4455E+00  0.3783E+00
 -4.336  0.4486E+00  0.3828E+00
 -4.326  0.4518E+00  0.3873E+00
 -4.316  0.4549E+00  0.3919E+00
 -4.306  0.4581E+00  0.3965E+00
 -4.296  0.4613E+00  0.4011E+00
 -4.286  0.4646E+00  0.4057E+00
 -4.276  0.4679E+00  0.4104E+00
 -4.266  0.4712E+00  0.4151E+00
 -4.256  0.4745E+00  0.4199E+00
 -4.246  0.4772E+00  0.4246E+00
 -4.236  0.4792E+00  0.4294E+00
 -4.226  0.4808E+00  0.4342E+00
 -4.216  0.4821E+00  0.4391E+00
 -4.206  0.4840E+00  0.4439E+00
 -4.196  0.4860E+00  0.4488E+00
 -4.186  0.4880E+00  0.4536E+00
 -4.176  0.4899E+00  0.4585E+00
 -4.166  0.4917E+00  0.4635E+00
 -4.156  0.4935E+00  0.4684E+00
 -4.146  0.4952E+00  0.4733E+00
 -4.136  0.4968E+00  0.4783E+00
 -4.126  0.4984E+00  0.4833E+00
 -4.116  0.5002E+00  0.4883E+00
 -4.106  0.5023E+00  0.4933E+00
 -4.096  0.5048E+00  0.4984E+00
 -4.086  0.5075E+00  0.5034E+00
 -4.076  0.5106E+00  0.5086E+00
 -4.066  0.5139E+00  0.5137E+00
 -4.056  0.5166E+00  0.5189E+00
 -4.046  0.5193E+00  0.5240E+00
 -4.036  0.5221E+00  0.5293E+00
 -4.026  0.5249E+00  0.5345E+00
 -4.016  0.5278E+00  0.5398E+00
 -4.006  0.5307E+00  0.5451E+00
 -3.996  0.5336E+00  0.5504E+00
 -3.986  0.5365E+00  0.5558E+00
 -3.976  0.5395E+00  0.5612E+00
 -3.966  0.5424E+00  0.5666E+00
 -3.956  0.5454E+00  0.5721E+00
 -3.946  0.5484E+00  0.5776E+00
 -3.936  0.5514E+00  0.5831E+00
 -3.926  0.5544E+00  0.5886E+00
 -3.916  0.5575E+00  0.5942E+00
 -3.906  0.5606E+00  0.5998E+00
 -3.896  0.5636E+00  0.6054E+00
 -3.886  0.5667E+00  0.6111E+00
 -3.876  0.5698E+00  0.6168E+00
 -3.866  0.5730E+00  0.6225E+00
 -3.856  0.5761E+00  0.6283E+00
 -3.846  0.5792E+00  0.6341E+00
 -3.836  0.5825E+00  0.6399E+00
 -3.826  0.5862E+00  0.6458E+00
 -3.816  0.5901E+00  0.6517E+00
 -3.806  0.5941E+00  0.6576E+00
 -3.796  0.5982E+00  0.6636E+00
 -3.786  0.6024E+00  0.6696E+00
 -3.776  0.6067E+00  0.6757E+00
 -3.766  0.6112E+00  0.6818E+00
 -3.756  0.6158E+00  0.6880E+00
 -3.746  0.6205E+00  0.6942E+00
 -3.736  0.6253E+00  0.7004E+00
 -3.726  0.6302E+00  0.7067E+00
 -3.716  0.6352E+00  0.7131E+00
 -3.706  0.6404E+00  0.7195E+00
 -3.696  0.6457E+00  0.7259E+00
 -3.686  0.6511E+00  0.7324E+00
 -3.676  0.6566E+00  0.7390E+00
 -3.666  0.6621E+00  0.7456E+00
 -3.656  0.6676E+00  0.7523E+00
 -3.646  0.6731E+00  0.7590E+00
 -3.636  0.6787E+00  0.7658E+00
 -3.626  0.6842E+00  0.7727E+00
 -3.616  0.6895E+00  0.7796E+00
 -3.606  0.6951E+00  0.7865E+00
 -3.596  0.7014E+00  0.7935E+00
 -3.586  0.7077E+00  0.8006E+00
 -3.576  0.7143E+00  0.8077E+00
 -3.566  0.7209E+00  0.8150E+00
 -3.556  0.7277E+00  0.8222E+00
 -3.546  0.7346E+00  0.8296E+00
 -3.536  0.7417E+00  0.8370E+00
 -3.526  0.7489E+00  0.8445E+00
 -3.516  0.7563E+00  0.8520E+00
 -3.506  0.7638E+00  0.8597E+00
 -3.496  0.7736E+00  0.8674E+00
 -3.486  0.8223E+00  0.8756E+00
 -3.476  0.8463E+00  0.8841E+00
 -3.466  0.8606E+00  0.8927E+00
 -3.456  0.8735E+00  0.9014E+00
 -3.446  0.8848E+00  0.9103E+00
 -3.436  0.8946E+00  0.9192E+00
 -3.426  0.9029E+00  0.9283E+00
 -3.416  0.9097E+00  0.9374E+00
 -3.406  0.9151E+00  0.9465E+00
 -3.396  0.9182E+00  0.9557E+00
 -3.386  0.9153E+00  0.9649E+00
 -3.376  0.9055E+00  0.9739E+00
 -3.366  0.8886E+00  0.9828E+00
 -3.356  0.8815E+00  0.9916E+00
 -3.346  0.8788E+00  0.1000E+01
 -3.336  0.8763E+00  0.1009E+01
 -3.326  0.8739E+00  0.1018E+01
 -3.316  0.8716E+00  0.1027E+01
 -3.306  0.8694E+00  0.1035E+01
 -3.296  0.8673E+00  0.1044E+01
 -3.286  0.8653E+00  0.1053E+01
 -3.276  0.8635E+00  0.1061E+01
 -3.266  0.8617E+00  0.1070E+01
 -3.256  0.8601E+00  0.1078E+01
 -3.246  0.8586E+00  0.1087E+01
 -3.236  0.8572E+00  0.1096E+01
 -3.226  0.8557E+00  0.1104E+01
 -3.216  0.8541E+00  0.1113E+01
 -3.206  0.8524E+00  0.1121E+01
 -3.196  0.8506E+00  0.1130E+01
 -3.186  0.8488E+00  0.1138E+01
 -3.176  0.8468E+00  0.1147E+01
 -3.166  0.8448E+00  0.1155E+01
 -3.156  0.8401E+00  0.1164E+01
 -3.146  0.8319E+00  0.1172E+01
 -3.136  0.8268E+00  0.1180E+01
 -3.126  0.8249E+00  0.1188E+01
 -3.116  0.8240E+00  0.1197E+01
 -3.106  0.8227E+00  0.1205E+01
 -3.096  0.8209E+00  0.1213E+01
 -3.086  0.8187E+00  0.1221E+01
 -3.076  0.8161E+00  0.1229E+01
 -3.066  0.8131E+00  0.1238E+01
 -3.056  0.8116E+00  0.1246E+01
 -3.046  0.8122E+00  0.1254E+01
 -3.036  0.8148E+00  0.1262E+01
 -3.026  0.8194E+00  0.1270E+01
 -3.016  0.8211E+00  0.1278E+01
 -3.006  0.8157E+00  0.1287E+01
 -2.996  0.8091E+00  0.1295E+01
 -2.986  0.8024E+00  0.1303E+01
 -2.976  0.7960E+00  0.1311E+01
 -2.966  0.7898E+00  0.1318E+01
 -2.956  0.7840E+00  0.1326E+01
 -2.946  0.7784E+00  0.1334E+01
 -2.936  0.7731E+00  0.1342E+01
 -2.926  0.7681E+00  0.1350E+01
 -2.916  0.7633E+00  0.1357E+01
 -2.906  0.7588E+00  0.1365E+01
 -2.896  0.7547E+00  0.1372E+01
 -2.886  0.7508E+00  0.1380E+01
 -2.876  0.7460E+00  0.1387E+01
 -2.866  0.7411E+00  0.1395E+01
 -2.856  0.7364E+00  0.1402E+01
 -2.846  0.7319E+00  0.1409E+01
 -2.836  0.7275E+00  0.1417E+01
 -2.826  0.7232E+00  0.1424E+01
 -2.816  0.7191E+00  0.1431E+01
 -2.806  0.7150E+00  0.1438E+01
 -2.796  0.7111E+00  0.1445E+01
 -2.786  0.7073E+00  0.1452E+01
 -2.776  0.7037E+00  0.1459E+01
 -2.766  0.7001E+00  0.1466E+01
 -2.756  0.6968E+00  0.1473E+01
 -2.746  0.6936E+00  0.1480E+01
 -2.736  0.6905E+00  0.1487E+01
 -2.726  0.6876E+00  0.1494E+01
 -2.716  0.6848E+00  0.1501E+01
 -2.706  0.6822E+00  0.1508E+01
 -2.696  0.6797E+00  0.1515E+01
 -2.686  0.6774E+00  0.1521E+01
 -2.676  0.6750E+00  0.1528E+01
 -2.666  0.6726E+00  0.1535E+01
 -2.656  0.6702E+00  0.1542E+01
 -2.646  0.6677E+00  0.1548E+01
 -2.636  0.6652E+00  0.1555E+01
 -2.626  0.6627E+00  0.1561E+01
 -2.616  0.6601E+00  0.1568E+01
 -2.606  0.6574E+00  0.1575E+01
 -2.596  0.6547E+00  0.1581E+01
 -2.586  0.6520E+00  0.1588E+01
 -2.576  0.6492E+00  0.1594E+01
 -2.566  0.6464E+00  0.1601E+01
 -2.556  0.6435E+00  0.1607E+01
 -2.546  0.6406E+00  0.1614E+01
 -2.536  0.6377E+00  0.1620E+01
 -2.526  0.6359E+00  0.1626E+01
 -2.516  0.6372E+00  0.1633E+01
 -2.506  0.6415E+00  0.1639E+01
 -2.496  0.6488E+00  0.1646E+01
 -2.486  0.6590E+00  0.1652E+01
 -2.476  0.6723E+00  0.1659E+01
 -2.466  0.6828E+00  0.1666E+01
 -2.456  0.6134E+00  0.1672E+01
 -2.446  0.6111E+00  0.1678E+01
 -2.436  0.6088E+00  0.1684E+01
 -2.426  0.6065E+00  0.1690E+01
 -2.416  0.6042E+00  0.1696E+01
 -2.406  0.6018E+00  0.1702E+01
 -2.396  0.5994E+00  0.1708E+01
 -2.386  0.5969E+00  0.1714E+01
 -2.376  0.5945E+00  0.1720E+01
 -2.366  0.5920E+00  0.1726E+01
 -2.356  0.5895E+00  0.1732E+01
 -2.346  0.5869E+00  0.1738E+01
 -2.336  0.5844E+00  0.1744E+01
 -2.326  0.5818E+00  0.1749E+01
 -2.316  0.5791E+00  0.1755E+01
 -2.306  0.5765E+00  0.1761E+01
 -2.296  0.5738E+00  0.1767E+01
 -2.286  0.5711E+00  0.1772E+01
 -2.276  0.5684E+00  0.1778E+01
 -2.266  0.5657E+00  0.1784E+01
 -2.256  0.5629E+00  0.1789E+01
 -2.246  0.5601E+00  0.1795E+01
 -2.236  0.5572E+00  0.1801E+01
 -2.226  0.5544E+00  0.1806E+01
 -2.216  0.5515E+00  0.1812E+01
 -2.206  0.5498E+00  0.1817E+01
 -2.196  0.5489E+00  0.1823E+01
 -2.186  0.5479E+00  0.1828E+01
 -2.176  0.5461E+00  0.1834E+01
 -2.166  0.5439E+00  0.1839E+01
 -2.156  0.5414E+00  0.1844E+01
 -2.146  0.5387E+00  0.1850E+01
 -2.136  0.5357E+00  0.1855E+01
 -2.126  0.5324E+00  0.1860E+01
 -2.116  0.5289E+00  0.1866E+01
 -2.106  0.5251E+00  0.1871E+01
 -2.096  0.5210E+00  0.1876E+01
 -2.086  0.5158E+00  0.1881E+01
 -2.076  0.5091E+00  0.1886E+01
 -2.066  0.5016E+00  0.1891E+01
 -2.056  0.4932E+00  0.1896E+01
 -2.046  0.4839E+00  0.1901E+01
 -2.036  0.4738E+00  0.1906E+01
 -2.026  0.4628E+00  0.1911E+01
 -2.016  0.4509E+00  0.1915E+01
 -2.006  0.4381E+00  0.1919E+01
 -1.996  0.4245E+00  0.1924E+01
 -1.986  0.4101E+00  0.1928E+01
 -1.976  0.3932E+00  0.1932E+01
 -1.966  0.3759E+00  0.1936E+01
 -1.956  0.3593E+00  0.1939E+01
 -1.946  0.3433E+00  0.1943E+01
 -1.936  0.3279E+00  0.1946E+01
 -1.926  0.3159E+00  0.1949E+01
 -1.916  0.3041E+00  0.1952E+01
 -1.906  0.2924E+00  0.1955E+01
 -1.896  0.2810E+00  0.1958E+01
 -1.886  0.2698E+00  0.1960E+01
 -1.876  0.2587E+00  0.1963E+01
 -1.866  0.2478E+00  0.1966E+01
 -1.856  0.2372E+00  0.1968E+01
 -1.846  0.2267E+00  0.1970E+01
 -1.836  0.2164E+00  0.1972E+01
 -1.826  0.2063E+00  0.1974E+01
 -1.816  0.1963E+00  0.1976E+01
 -1.806  0.1866E+00  0.1978E+01
 -1.796  0.1770E+00  0.1980E+01
 -1.786  0.1677E+00  0.1982E+01
 -1.776  0.1585E+00  0.1983E+01
 -1.766  0.1495E+00  0.1985E+01
 -1.756  0.1407E+00  0.1986E+01
 -1.746  0.1321E+00  0.1987E+01
 -1.736  0.1237E+00  0.1989E+01
 -1.726  0.1155E+00  0.1990E+01
 -1.716  0.1075E+00  0.1991E+01
 -1.706  0.9978E-01  0.1992E+01
 -1.696  0.9233E-01  0.1993E+01
 -1.686  0.8516E-01  0.1994E+01
 -1.676  0.7826E-01  0.1994E+01
 -1.666  0.7163E-01  0.1995E+01
 -1.656  0.6527E-01  0.1996E+01
 -1.646  0.5918E-01  0.1996E+01
 -1.636  0.5337E-01  0.1997E+01
 -1.626  0.4782E-01  0.1997E+01
 -1.616  0.4255E-01  0.1998E+01
 -1.606  0.3754E-01  0.1998E+01
 -1.596  0.3281E-01  0.1999E+01
 -1.586  0.2835E-01  0.1999E+01
 -1.576  0.2428E-01  0.1999E+01
 -1.566  0.2071E-01  0.1999E+01
 -1.556  0.1764E-01  0.2000E+01
 -1.546  0.1527E-01  0.2000E+01
 -1.536  0.1405E-01  0.2000E+01
 -1.526  0.1318E-01  0.2000E+01
 -1.516  0.1264E-01  0.2000E+01
 -1.506  0.1245E-01  0.2000E+01
 -1.496  0.1259E-01  0.2000E+01
 -1.486  0.1308E-01  0.2000E+01
 -1.476  0.1391E-01  0.2001E+01
 -1.466  0.1509E-01  0.2001E+01
 -1.456  0.1671E-01  0.2001E+01
 -1.446  0.1887E-01  0.2001E+01
 -1.436  0.2158E-01  0.2001E+01
 -1.426  0.2483E-01  0.2002E+01
 -1.416  0.2856E-01  0.2002E+01
 -1.406  0.3260E-01  0.2002E+01
 -1.396  0.3691E-01  0.2003E+01
 -1.386  0.4150E-01  0.2003E+01
 -1.376  0.4638E-01  0.2003E+01
 -1.366  0.5153E-01  0.2004E+01
 -1.356  0.5696E-01  0.2004E+01
 -1.346  0.6268E-01  0.2005E+01
 -1.336  0.6867E-01  0.2006E+01
 -1.326  0.7494E-01  0.2007E+01
 -1.316  0.8146E-01  0.2007E+01
 -1.306  0.8813E-01  0.2008E+01
 -1.296  0.9495E-01  0.2009E+01
 -1.286  0.1019E+00  0.2010E+01
 -1.276  0.1090E+00  0.2011E+01
 -1.266  0.1163E+00  0.2012E+01
 -1.256  0.1237E+00  0.2014E+01
 -1.246  0.1313E+00  0.2015E+01
 -1.236  0.1390E+00  0.2016E+01
 -1.226  0.1468E+00  0.2018E+01
 -1.216  0.1548E+00  0.2019E+01
 -1.206  0.1630E+00  0.2021E+01
 -1.196  0.1713E+00  0.2023E+01
 -1.186  0.1797E+00  0.2025E+01
 -1.176  0.1883E+00  0.2026E+01
 -1.166  0.1971E+00  0.2028E+01
 -1.156  0.2060E+00  0.2030E+01
 -1.146  0.2150E+00  0.2033E+01
 -1.136  0.2242E+00  0.2035E+01
 -1.126  0.2335E+00  0.2037E+01
 -1.116  0.2430E+00  0.2040E+01
 -1.106  0.2526E+00  0.2042E+01
 -1.096  0.2624E+00  0.2045E+01
 -1.086  0.2723E+00  0.2048E+01
 -1.076  0.2824E+00  0.2050E+01
 -1.066  0.2926E+00  0.2053E+01
 -1.056  0.3030E+00  0.2056E+01
 -1.046  0.3135E+00  0.2059E+01
 -1.036  0.3242E+00  0.2063E+01
 -1.026  0.3350E+00  0.2066E+01
 -1.016  0.3501E+00  0.2070E+01
 -1.006  0.3661E+00  0.2073E+01
 -0.996  0.3820E+00  0.2077E+01
 -0.986  0.3978E+00  0.2081E+01
 -0.976  0.4136E+00  0.2085E+01
 -0.966  0.4293E+00  0.2089E+01
 -0.956  0.4449E+00  0.2094E+01
 -0.946  0.4605E+00  0.2098E+01
 -0.936  0.4760E+00  0.2103E+01
 -0.926  0.4914E+00  0.2108E+01
 -0.916  0.5063E+00  0.2113E+01
 -0.906  0.5169E+00  0.2118E+01
 -0.896  0.5259E+00  0.2124E+01
 -0.886  0.5347E+00  0.2129E+01
 -0.876  0.5432E+00  0.2134E+01
 -0.866  0.5513E+00  0.2140E+01
 -0.856  0.5593E+00  0.2146E+01
 -0.846  0.5669E+00  0.2151E+01
 -0.836  0.5742E+00  0.2157E+01
 -0.826  0.5813E+00  0.2163E+01
 -0.816  0.5873E+00  0.2169E+01
 -0.806  0.5934E+00  0.2175E+01
 -0.796  0.5998E+00  0.2181E+01
 -0.786  0.6065E+00  0.2187E+01
 -0.776  0.6134E+00  0.2193E+01
 -0.766  0.6206E+00  0.2199E+01
 -0.756  0.6280E+00  0.2205E+01
 -0.746  0.6358E+00  0.2212E+01
 -0.736  0.6438E+00  0.2218E+01
 -0.726  0.6534E+00  0.2225E+01
 -0.716  0.6653E+00  0.2231E+01
 -0.706  0.6797E+00  0.2238E+01
 -0.696  0.6964E+00  0.2245E+01
 -0.686  0.7152E+00  0.2252E+01
 -0.676  0.7357E+00  0.2259E+01
 -0.666  0.7586E+00  0.2267E+01
 -0.656  0.7837E+00  0.2275E+01
 -0.646  0.8111E+00  0.2283E+01
 -0.636  0.8409E+00  0.2291E+01
 -0.626  0.9011E+00  0.2300E+01
 -0.616  0.9592E+00  0.2310E+01
 -0.606  0.1035E+01  0.2320E+01
 -0.596  0.1118E+01  0.2332E+01
 -0.586  0.1206E+01  0.2344E+01
 -0.576  0.1304E+01  0.2357E+01
 -0.566  0.1454E+01  0.2371E+01
 -0.556  0.1523E+01  0.2386E+01
 -0.546  0.1539E+01  0.2402E+01
 -0.536  0.1506E+01  0.2417E+01
 -0.526  0.1480E+01  0.2432E+01
 -0.516  0.1464E+01  0.2446E+01
 -0.506  0.1459E+01  0.2461E+01
 -0.496  0.1464E+01  0.2476E+01
 -0.486  0.1463E+01  0.2490E+01
 -0.476  0.1456E+01  0.2505E+01
 -0.466  0.1444E+01  0.2519E+01
 -0.456  0.1425E+01  0.2533E+01
 -0.446  0.1409E+01  0.2548E+01
 -0.436  0.1392E+01  0.2561E+01
 -0.426  0.1374E+01  0.2575E+01
 -0.416  0.1355E+01  0.2589E+01
 -0.406  0.1334E+01  0.2602E+01
 -0.396  0.1313E+01  0.2615E+01
 -0.386  0.1290E+01  0.2628E+01
 -0.376  0.1267E+01  0.2641E+01
 -0.366  0.1242E+01  0.2653E+01
 -0.356  0.1217E+01  0.2665E+01
 -0.346  0.1193E+01  0.2677E+01
 -0.336  0.1167E+01  0.2689E+01
 -0.326  0.1142E+01  0.2700E+01
 -0.316  0.1116E+01  0.2712E+01
 -0.306  0.1089E+01  0.2722E+01
 -0.296  0.1063E+01  0.2733E+01
 -0.286  0.1037E+01  0.2743E+01
 -0.276  0.1013E+01  0.2754E+01
 -0.266  0.9896E+00  0.2763E+01
 -0.256  0.9676E+00  0.2773E+01
 -0.246  0.9466E+00  0.2783E+01
 -0.236  0.9268E+00  0.2792E+01
 -0.226  0.9082E+00  0.2801E+01
 -0.216  0.8906E+00  0.2810E+01
 -0.206  0.8741E+00  0.2819E+01
 -0.196  0.8587E+00  0.2827E+01
 -0.186  0.8444E+00  0.2836E+01
 -0.176  0.8313E+00  0.2844E+01
 -0.166  0.8191E+00  0.2852E+01
 -0.156  0.8078E+00  0.2860E+01
 -0.146  0.7972E+00  0.2868E+01
 -0.136  0.7873E+00  0.2876E+01
 -0.126  0.7780E+00  0.2884E+01
 -0.116  0.7690E+00  0.2892E+01
 -0.106  0.7602E+00  0.2899E+01
 -0.096  0.7515E+00  0.2907E+01
 -0.086  0.7429E+00  0.2914E+01
 -0.076  0.7344E+00  0.2921E+01
 -0.066  0.7266E+00  0.2929E+01
 -0.056  0.7193E+00  0.2936E+01
 -0.046  0.7120E+00  0.2943E+01
 -0.036  0.7049E+00  0.2950E+01
 -0.026  0.6978E+00  0.2957E+01
 -0.016  0.6907E+00  0.2964E+01
 -0.006  0.6838E+00  0.2971E+01
  0.004  0.6769E+00  0.2978E+01
  0.014  0.6701E+00  0.2984E+01
  0.024  0.6632E+00  0.2991E+01
  0.034  0.6565E+00  0.2997E+01
  0.044  0.6499E+00  0.3004E+01
  0.054  0.6434E+00  0.3010E+01
  0.064  0.6371E+00  0.3017E+01
  0.074  0.6309E+00  0.3023E+01
  0.084  0.6248E+00  0.3029E+01
  0.094  0.6189E+00  0.3036E+01
  0.104  0.6131E+00  0.3042E+01
  0.114  0.6074E+00  0.3048E+01
  0.124  0.6019E+00  0.3054E+01
  0.134  0.5964E+00  0.3060E+01
  0.144  0.5911E+00  0.3066E+01
  0.154  0.5860E+00  0.3071E+01
  0.164  0.5809E+00  0.3077E+01
  0.174  0.5760E+00  0.3083E+01
  0.184  0.5712E+00  0.3089E+01
  0.194  0.5666E+00  0.3094E+01
  0.204  0.5620E+00  0.3100E+01
  0.214  0.5568E+00  0.3106E+01
  0.224  0.5529E+00  0.3111E+01
  0.234  0.5491E+00  0.3117E+01
  0.244  0.5454E+00  0.3122E+01
  0.254  0.5416E+00  0.3127E+01
  0.264  0.5379E+00  0.3133E+01
  0.274  0.5342E+00  0.3138E+01
  0.284  0.5306E+00  0.3144E+01
  0.294  0.5270E+00  0.3149E+01
  0.304  0.5234E+00  0.3154E+01
  0.314  0.5198E+00  0.3159E+01
  0.324  0.5163E+00  0.3164E+01
  0.334  0.5127E+00  0.3170E+01
  0.344  0.5093E+00  0.3175E+01
  0.354  0.5058E+00  0.3180E+01
  0.364  0.5024E+00  0.3185E+01
  0.374  0.4990E+00  0.3190E+01
  0.384  0.4956E+00  0.3195E+01
  0.394  0.4923E+00  0.3200E+01
  0.404  0.4890E+00  0.3204E+01
  0.414  0.4857E+00  0.3209E+01
  0.424  0.4825E+00  0.3214E+01
  0.434  0.4792E+00  0.3219E+01
  0.444  0.4760E+00  0.3224E+01
  0.454  0.4729E+00  0.3228E+01
  0.464  0.4697E+00  0.3233E+01
  0.474  0.4666E+00  0.3238E+01
  0.484  0.4635E+00  0.3242E+01
  0.494  0.4604E+00  0.3247E+01
  0.504  0.4574E+00  0.3252E+01
  0.514  0.4544E+00  0.3256E+01
  0.524  0.4514E+00  0.3261E+01
  0.534  0.4485E+00  0.3265E+01
  0.544  0.4455E+00  0.3270E+01
  0.554  0.4426E+00  0.3274E+01
  0.564  0.4396E+00  0.3278E+01
  0.574  0.4389E+00  0.3283E+01
  0.584  0.4374E+00  0.3287E+01
  0.594  0.4351E+00  0.3292E+01
  0.604  0.4327E+00  0.3296E+01
  0.614  0.4303E+00  0.3300E+01
  0.624  0.4279E+00  0.3304E+01
  0.634  0.4254E+00  0.3309E+01
  0.644  0.4229E+00  0.3313E+01
  0.654  0.4205E+00  0.3317E+01
  0.664  0.4180E+00  0.3321E+01
  0.674  0.4155E+00  0.3325E+01
  0.684  0.4129E+00  0.3330E+01
  0.694  0.4104E+00  0.3334E+01
  0.704  0.4078E+00  0.3338E+01
  0.714  0.4052E+00  0.3342E+01
  0.724  0.4026E+00  0.3346E+01
  0.734  0.4000E+00  0.3350E+01
  0.744  0.3974E+00  0.3354E+01
  0.754  0.3947E+00  0.3358E+01
  0.764  0.3921E+00  0.3362E+01
  0.774  0.3895E+00  0.3366E+01
  0.784  0.3870E+00  0.3369E+01
  0.794  0.3845E+00  0.3373E+01
  0.804  0.3820E+00  0.3377E+01
  0.814  0.3795E+00  0.3381E+01
  0.824  0.3771E+00  0.3385E+01
  0.834  0.3747E+00  0.3388E+01
  0.844  0.3724E+00  0.3392E+01
  0.854  0.3700E+00  0.3396E+01
  0.864  0.3677E+00  0.3400E+01
  0.874  0.3654E+00  0.3403E+01
  0.884  0.3632E+00  0.3407E+01
  0.894  0.3610E+00  0.3410E+01
  0.904  0.3588E+00  0.3414E+01
  0.914  0.3566E+00  0.3418E+01
  0.924  0.3545E+00  0.3421E+01
  0.934  0.3524E+00  0.3425E+01
  0.944  0.3503E+00  0.3428E+01
  0.954  0.3482E+00  0.3432E+01
  0.964  0.3462E+00  0.3435E+01
  0.974  0.3442E+00  0.3439E+01
  0.984  0.3422E+00  0.3442E+01
  0.994  0.3402E+00  0.3445E+01
  1.004  0.3383E+00  0.3449E+01
  1.014  0.3363E+00  0.3452E+01
  1.024  0.3344E+00  0.3455E+01
  1.034  0.3325E+00  0.3459E+01
  1.044  0.3305E+00  0.3462E+01
  1.054  0.3286E+00  0.3465E+01
  1.064  0.3267E+00  0.3469E+01
  1.074  0.3248E+00  0.3472E+01
  1.084  0.3229E+00  0.3475E+01
  1.094  0.3211E+00  0.3478E+01
  1.104  0.3192E+00  0.3482E+01
  1.114  0.3174E+00  0.3485E+01
  1.124  0.3156E+00  0.3488E+01
  1.134  0.3139E+00  0.3491E+01
  1.144  0.3121E+00  0.3494E+01
  1.154  0.3104E+00  0.3497E+01
  1.164  0.3088E+00  0.3500E+01
  1.174  0.3071E+00  0.3503E+01
  1.184  0.3054E+00  0.3506E+01
  1.194  0.3038E+00  0.3509E+01
  1.204  0.3022E+00  0.3512E+01
  1.214  0.3007E+00  0.3515E+01
  1.224  0.2991E+00  0.3518E+01
  1.234  0.2976E+00  0.3521E+01
  1.244  0.2961E+00  0.3524E+01
  1.254  0.2946E+00  0.3527E+01
  1.264  0.2932E+00  0.3530E+01
  1.274  0.2919E+00  0.3533E+01
  1.284  0.2906E+00  0.3536E+01
  1.294  0.2893E+00  0.3539E+01
  1.304  0.2880E+00  0.3542E+01
  1.314  0.2867E+00  0.3545E+01
  1.324  0.2853E+00  0.3548E+01
  1.334  0.2840E+00  0.3550E+01
  1.344  0.2827E+00  0.3553E+01
  1.354  0.2814E+00  0.3556E+01
  1.364  0.2800E+00  0.3559E+01
  1.374  0.2787E+00  0.3562E+01
  1.384  0.2777E+00  0.3564E+01
  1.394  0.2767E+00  0.3567E+01
  1.404  0.2757E+00  0.3570E+01
  1.414  0.2746E+00  0.3573E+01
  1.424  0.2735E+00  0.3575E+01
  1.434  0.2724E+00  0.3578E+01
  1.444  0.2712E+00  0.3581E+01
  1.454  0.2700E+00  0.3584E+01
  1.464  0.2688E+00  0.3586E+01
  1.474  0.2675E+00  0.3589E+01
  1.484  0.2662E+00  0.3592E+01
  1.494  0.2649E+00  0.3594E+01
  1.504  0.2635E+00  0.3597E+01
  1.514  0.2621E+00  0.3600E+01
  1.524  0.2607E+00  0.3602E+01
  1.534  0.2592E+00  0.3605E+01
  1.544  0.2577E+00  0.3607E+01
  1.554  0.2560E+00  0.3610E+01
  1.564  0.2543E+00  0.3612E+01
  1.574  0.2526E+00  0.3615E+01
  1.584  0.2510E+00  0.3617E+01
  1.594  0.2493E+00  0.3620E+01
  1.604  0.2477E+00  0.3622E+01
  1.614  0.2461E+00  0.3625E+01
  1.624  0.2444E+00  0.3627E+01
  1.634  0.2429E+00  0.3630E+01
  1.644  0.2413E+00  0.3632E+01
  1.654  0.2397E+00  0.3635E+01
  1.664  0.2382E+00  0.3637E+01
  1.674  0.2367E+00  0.3639E+01
  1.684  0.2352E+00  0.3642E+01
  1.694  0.2337E+00  0.3644E+01
  1.704  0.2322E+00  0.3646E+01
  1.714  0.2307E+00  0.3649E+01
  1.724  0.2293E+00  0.3651E+01
  1.734  0.2278E+00  0.3653E+01
  1.744  0.2264E+00  0.3655E+01
  1.754  0.2250E+00  0.3658E+01
  1.764  0.2236E+00  0.3660E+01
  1.774  0.2223E+00  0.3662E+01
  1.784  0.2209E+00  0.3664E+01
  1.794  0.2196E+00  0.3667E+01
  1.804  0.2179E+00  0.3669E+01
  1.814  0.2168E+00  0.3671E+01
  1.824  0.2157E+00  0.3673E+01
  1.834  0.2154E+00  0.3675E+01
  1.844  0.2165E+00  0.3677E+01
  1.854  0.2191E+00  0.3680E+01
  1.864  0.2232E+00  0.3682E+01
  1.874  0.2288E+00  0.3684E+01
  1.884  0.2358E+00  0.3686E+01
  1.894  0.2443E+00  0.3689E+01
  1.904  0.2543E+00  0.3691E+01
  1.914  0.2658E+00  0.3694E+01
  1.924  0.2787E+00  0.3697E+01
  1.934  0.2931E+00  0.3700E+01
  1.944  0.3090E+00  0.3703E+01
  1.954  0.3264E+00  0.3706E+01
  1.964  0.3452E+00  0.3710E+01
  1.974  0.3655E+00  0.3713E+01
  1.984  0.3873E+00  0.3717E+01
  1.994  0.5250E+00  0.3722E+01
  2.004  0.6268E+00  0.3729E+01
  2.014  0.6933E+00  0.3736E+01
  2.024  0.7388E+00  0.3743E+01
  2.034  0.7870E+00  0.3751E+01
  2.044  0.8396E+00  0.3759E+01
  2.054  0.8893E+00  0.3768E+01
  2.064  0.9362E+00  0.3778E+01
  2.074  0.9804E+00  0.3787E+01
  2.084  0.1022E+01  0.3798E+01
  2.094  0.1055E+01  0.3808E+01
  2.104  0.1087E+01  0.3819E+01
  2.114  0.1117E+01  0.3830E+01
  2.124  0.1147E+01  0.3842E+01
  2.134  0.1176E+01  0.3853E+01
  2.144  0.1204E+01  0.3865E+01
  2.154  0.1230E+01  0.3878E+01
  2.164  0.1240E+01  0.3890E+01
  2.174  0.1248E+01  0.3903E+01
  2.184  0.1254E+01  0.3915E+01
  2.194  0.1259E+01  0.3928E+01
  2.204  0.1262E+01  0.3940E+01
  2.214  0.1263E+01  0.3953E+01
  2.224  0.1261E+01  0.3966E+01
  2.234  0.1254E+01  0.3978E+01
  2.244  0.1246E+01  0.3991E+01
  2.254  0.1238E+01  0.4003E+01
  2.264  0.1229E+01  0.4015E+01
  2.274  0.1220E+01  0.4027E+01
  2.284  0.1211E+01  0.4040E+01
  2.294  0.1200E+01  0.4052E+01
  2.304  0.1189E+01  0.4063E+01
  2.314  0.1180E+01  0.4075E+01
  2.324  0.1171E+01  0.4087E+01
  2.334  0.1164E+01  0.4099E+01
  2.344  0.1158E+01  0.4110E+01
  2.354  0.1154E+01  0.4122E+01
  2.364  0.1149E+01  0.4133E+01
  2.374  0.1146E+01  0.4145E+01
  2.384  0.1143E+01  0.4156E+01
  2.394  0.1140E+01  0.4167E+01
  2.404  0.1137E+01  0.4179E+01
  2.414  0.1134E+01  0.4190E+01
  2.424  0.1132E+01  0.4202E+01
  2.434  0.1130E+01  0.4213E+01
  2.444  0.1127E+01  0.4224E+01
  2.454  0.1125E+01  0.4235E+01
  2.464  0.1124E+01  0.4247E+01
  2.474  0.1126E+01  0.4258E+01
  2.484  0.1153E+01  0.4269E+01
  2.494  0.1139E+01  0.4281E+01
  2.504  0.1123E+01  0.4292E+01
  2.514  0.1108E+01  0.4303E+01
  2.524  0.1094E+01  0.4314E+01
  2.534  0.1083E+01  0.4325E+01
  2.544  0.1072E+01  0.4336E+01
  2.554  0.1064E+01  0.4346E+01
  2.564  0.1056E+01  0.4357E+01
  2.574  0.1051E+01  0.4367E+01
  2.584  0.1047E+01  0.4378E+01
  2.594  0.1044E+01  0.4388E+01
  2.604  0.1042E+01  0.4399E+01
  2.614  0.1041E+01  0.4409E+01
  2.624  0.1039E+01  0.4419E+01
  2.634  0.1038E+01  0.4430E+01
  2.644  0.1037E+01  0.4440E+01
  2.654  0.1035E+01  0.4450E+01
  2.664  0.1039E+01  0.4461E+01
  2.674  0.1046E+01  0.4471E+01
  2.684  0.1049E+01  0.4482E+01
  2.694  0.1047E+01  0.4492E+01
  2.704  0.1041E+01  0.4503E+01
  2.714  0.1030E+01  0.4513E+01
  2.724  0.1016E+01  0.4523E+01
  2.734  0.1013E+01  0.4533E+01
  2.744  0.1012E+01  0.4543E+01
  2.754  0.1012E+01  0.4554E+01
  2.764  0.1013E+01  0.4564E+01
  2.774  0.1016E+01  0.4574E+01
  2.784  0.1018E+01  0.4584E+01
  2.794  0.1021E+01  0.4594E+01
  2.804  0.1023E+01  0.4604E+01
  2.814  0.1024E+01  0.4615E+01
  2.824  0.1025E+01  0.4625E+01
  2.834  0.1027E+01  0.4635E+01
  2.844  0.1029E+01  0.4645E+01
  2.854  0.1031E+01  0.4656E+01
  2.864  0.1033E+01  0.4666E+01
  2.874  0.1036E+01  0.4676E+01
  2.884  0.1039E+01  0.4687E+01
  2.894  0.1042E+01  0.4697E+01
  2.904  0.1046E+01  0.4708E+01
  2.914  0.1050E+01  0.4718E+01
  2.924  0.1055E+01  0.4729E+01
  2.934  0.1059E+01  0.4739E+01
  2.944  0.1063E+01  0.4750E+01
  2.954  0.1067E+01  0.4761E+01
  2.964  0.1072E+01  0.4771E+01
  2.974  0.1076E+01  0.4782E+01
  2.984  0.1081E+01  0.4793E+01
  2.994  0.1086E+01  0.4804E+01
  3.004  0.1092E+01  0.4815E+01
  3.014  0.1097E+01  0.4826E+01
  3.024  0.1103E+01  0.4837E+01
  3.034  0.1109E+01  0.4848E+01
  3.044  0.1115E+01  0.4859E+01
  3.054  0.1121E+01  0.4870E+01
  3.064  0.1228E+01  0.4882E+01
  3.074  0.1311E+01  0.4896E+01
  3.084  0.1213E+01  0.4908E+01
  3.094  0.1213E+01  0.4920E+01
  3.104  0.1210E+01  0.4932E+01
  3.114  0.1205E+01  0.4944E+01
  3.124  0.1212E+01  0.4956E+01
  3.134  0.1218E+01  0.4968E+01
  3.144  0.1224E+01  0.4981E+01
  3.154  0.1231E+01  0.4993E+01
  3.164  0.1238E+01  0.5005E+01
  3.174  0.1247E+01  0.5018E+01
  3.184  0.1256E+01  0.5030E+01
  3.194  0.1266E+01  0.5043E+01
  3.204  0.1275E+01  0.5056E+01
  3.214  0.1285E+01  0.5069E+01
  3.224  0.1295E+01  0.5081E+01
  3.234  0.1305E+01  0.5095E+01
  3.244  0.1316E+01  0.5108E+01
  3.254  0.1326E+01  0.5121E+01
  3.264  0.1337E+01  0.5134E+01
  3.274  0.1350E+01  0.5148E+01
  3.284  0.1366E+01  0.5161E+01
  3.294  0.1384E+01  0.5175E+01
  3.304  0.1404E+01  0.5189E+01
  3.314  0.1424E+01  0.5204E+01
  3.324  0.1441E+01  0.5218E+01
  3.334  0.1461E+01  0.5233E+01
  3.344  0.1497E+01  0.5248E+01
  3.354  0.1529E+01  0.5263E+01
  3.364  0.1556E+01  0.5278E+01
  3.374  0.1572E+01  0.5294E+01
  3.384  0.1571E+01  0.5310E+01
  3.394  0.1558E+01  0.5325E+01
  3.404  0.1557E+01  0.5341E+01
  3.414  0.1564E+01  0.5357E+01
  3.424  0.1569E+01  0.5372E+01
  3.434  0.1572E+01  0.5388E+01
  3.444  0.1574E+01  0.5404E+01
  3.454  0.1573E+01  0.5420E+01
  3.464  0.1557E+01  0.5435E+01
  3.474  0.1533E+01  0.5450E+01
  3.484  0.1518E+01  0.5466E+01
  3.494  0.1511E+01  0.5481E+01
  3.504  0.1508E+01  0.5496E+01
  3.514  0.1506E+01  0.5511E+01
  3.524  0.1505E+01  0.5526E+01
  3.534  0.1504E+01  0.5541E+01
  3.544  0.1504E+01  0.5556E+01
  3.554  0.1505E+01  0.5571E+01
  3.564  0.1507E+01  0.5586E+01
  3.574  0.1509E+01  0.5601E+01
  3.584  0.1511E+01  0.5616E+01
  3.594  0.1514E+01  0.5631E+01
  3.604  0.1516E+01  0.5647E+01
  3.614  0.1565E+01  0.5662E+01
  3.624  0.1570E+01  0.5678E+01
  3.634  0.1565E+01  0.5694E+01
  3.644  0.1558E+01  0.5709E+01
  3.654  0.1550E+01  0.5725E+01
  3.664  0.1541E+01  0.5740E+01
  3.674  0.1533E+01  0.5755E+01
  3.684  0.1529E+01  0.5771E+01
  3.694  0.1520E+01  0.5786E+01
  3.704  0.1512E+01  0.5801E+01
  3.714  0.1504E+01  0.5816E+01
  3.724  0.1497E+01  0.5831E+01
  3.734  0.1491E+01  0.5846E+01
  3.744  0.1485E+01  0.5861E+01
  3.754  0.1479E+01  0.5876E+01
  3.764  0.1474E+01  0.5890E+01
  3.774  0.1469E+01  0.5905E+01
  3.784  0.1465E+01  0.5920E+01
  3.794  0.1461E+01  0.5934E+01
  3.804  0.1447E+01  0.5949E+01
  3.814  0.1444E+01  0.5963E+01
  3.824  0.1441E+01  0.5978E+01
  3.834  0.1442E+01  0.5992E+01
  3.844  0.1445E+01  0.6007E+01
  3.854  0.1450E+01  0.6021E+01
  3.864  0.1456E+01  0.6036E+01
  3.874  0.1465E+01  0.6050E+01
  3.884  0.1477E+01  0.6065E+01
  3.894  0.1478E+01  0.6080E+01
  3.904  0.1445E+01  0.6094E+01
  3.914  0.1423E+01  0.6108E+01
  3.924  0.1419E+01  0.6123E+01
  3.934  0.1414E+01  0.6137E+01
  3.944  0.1410E+01  0.6151E+01
  3.954  0.1405E+01  0.6165E+01
  3.964  0.1401E+01  0.6179E+01
  3.974  0.1396E+01  0.6193E+01
  3.984  0.1392E+01  0.6207E+01
  3.994  0.1387E+01  0.6221E+01
  4.004  0.1383E+01  0.6234E+01
  4.014  0.1379E+01  0.6248E+01
  4.024  0.1375E+01  0.6262E+01
  4.034  0.1372E+01  0.6276E+01
  4.044  0.1369E+01  0.6289E+01
  4.054  0.1369E+01  0.6303E+01
  4.064  0.1370E+01  0.6317E+01
  4.074  0.1372E+01  0.6331E+01
  4.084  0.1377E+01  0.6344E+01
  4.094  0.1387E+01  0.6358E+01
  4.104  0.1401E+01  0.6372E+01
  4.114  0.1388E+01  0.6386E+01
  4.124  0.1382E+01  0.6400E+01
  4.134  0.1376E+01  0.6414E+01
  4.144  0.1370E+01  0.6427E+01
  4.154  0.1365E+01  0.6441E+01
  4.164  0.1361E+01  0.6455E+01
  4.174  0.1357E+01  0.6468E+01
  4.184  0.1353E+01  0.6482E+01
  4.194  0.1350E+01  0.6495E+01
  4.204  0.1347E+01  0.6509E+01
  4.214  0.1346E+01  0.6522E+01
  4.224  0.1344E+01  0.6536E+01
  4.234  0.1343E+01  0.6549E+01
  4.244  0.1342E+01  0.6562E+01
  4.254  0.1341E+01  0.6576E+01
  4.264  0.1341E+01  0.6589E+01
  4.274  0.1339E+01  0.6603E+01
  4.284  0.1337E+01  0.6616E+01
  4.294  0.1336E+01  0.6629E+01
  4.304  0.1334E+01  0.6643E+01
  4.314  0.1332E+01  0.6656E+01
  4.324  0.1329E+01  0.6669E+01
  4.334  0.1326E+01  0.6683E+01
  4.344  0.1323E+01  0.6696E+01
  4.354  0.1319E+01  0.6709E+01
  4.364  0.1336E+01  0.6722E+01
  4.374  0.1362E+01  0.6736E+01
  4.384  0.1379E+01  0.6750E+01
  4.394  0.1382E+01  0.6764E+01
  4.404  0.1380E+01  0.6777E+01
  4.414  0.1374E+01  0.6791E+01
  4.424  0.1364E+01  0.6805E+01
  4.434  0.1351E+01  0.6818E+01
  4.444  0.1334E+01  0.6832E+01
  4.454  0.1313E+01  0.6845E+01
  4.464  0.1308E+01  0.6858E+01
  4.474  0.1304E+01  0.6871E+01
  4.484  0.1300E+01  0.6884E+01
  4.494  0.1296E+01  0.6897E+01
  4.504  0.1292E+01  0.6910E+01
  4.514  0.1289E+01  0.6923E+01
  4.524  0.1285E+01  0.6935E+01
  4.534  0.1282E+01  0.6948E+01
  4.544  0.1279E+01  0.6961E+01
  4.554  0.1276E+01  0.6974E+01
  4.564  0.1273E+01  0.6987E+01
  4.574  0.1270E+01  0.6999E+01
  4.584  0.1268E+01  0.7012E+01
  4.594  0.1277E+01  0.7025E+01
  4.604  0.1294E+01  0.7038E+01
  4.614  0.1312E+01  0.7051E+01
  4.624  0.1324E+01  0.7064E+01
  4.634  0.1328E+01  0.7077E+01
  4.644  0.1323E+01  0.7091E+01
  4.654  0.1314E+01  0.7104E+01
  4.664  0.1305E+01  0.7117E+01
  4.674  0.1296E+01  0.7130E+01
  4.684  0.1286E+01  0.7143E+01
  4.694  0.1273E+01  0.7155E+01
  4.704  0.1264E+01  0.7168E+01
  4.714  0.1258E+01  0.7181E+01
  4.724  0.1253E+01  0.7193E+01
  4.734  0.1248E+01  0.7206E+01
  4.744  0.1243E+01  0.7218E+01
  4.754  0.1238E+01  0.7230E+01
  4.764  0.1232E+01  0.7243E+01
  4.774  0.1226E+01  0.7255E+01
  4.784  0.1220E+01  0.7267E+01
  4.794  0.1214E+01  0.7279E+01
  4.804  0.1208E+01  0.7291E+01
  4.814  0.1201E+01  0.7303E+01
  4.824  0.1195E+01  0.7315E+01
  4.834  0.1193E+01  0.7327E+01
  4.844  0.1199E+01  0.7339E+01
  4.854  0.1207E+01  0.7351E+01
  4.864  0.1212E+01  0.7363E+01
  4.874  0.1208E+01  0.7375E+01
  4.884  0.1203E+01  0.7388E+01
  4.894  0.1196E+01  0.7399E+01
  4.904  0.1188E+01  0.7411E+01
  4.914  0.1178E+01  0.7423E+01
  4.924  0.1167E+01  0.7435E+01
  4.934  0.1160E+01  0.7446E+01
  4.944  0.1153E+01  0.7458E+01
  4.954  0.1145E+01  0.7469E+01
  4.964  0.1127E+01  0.7481E+01
  4.974  0.1106E+01  0.7492E+01
  4.984  0.1084E+01  0.7503E+01
  4.994  0.1060E+01  0.7513E+01
  5.004  0.1034E+01  0.7524E+01
  5.014  0.1005E+01  0.7534E+01
  5.024  0.9758E+00  0.7543E+01
  5.034  0.9460E+00  0.7553E+01
  5.044  0.9166E+00  0.7562E+01
  5.054  0.8901E+00  0.7571E+01
  5.064  0.8666E+00  0.7580E+01
  5.074  0.8461E+00  0.7588E+01
  5.084  0.8287E+00  0.7596E+01
  5.094  0.8137E+00  0.7604E+01
  5.104  0.7991E+00  0.7612E+01
  5.114  0.7848E+00  0.7620E+01
  5.124  0.7707E+00  0.7628E+01
  5.134  0.7569E+00  0.7636E+01
  5.144  0.7435E+00  0.7643E+01
  5.154  0.7305E+00  0.7650E+01
  5.164  0.7177E+00  0.7657E+01
  5.174  0.7053E+00  0.7664E+01
  5.184  0.6931E+00  0.7671E+01
  5.194  0.6813E+00  0.7678E+01
  5.204  0.6697E+00  0.7685E+01
  5.214  0.6585E+00  0.7691E+01
  5.224  0.6476E+00  0.7698E+01
  5.234  0.6370E+00  0.7704E+01
  5.244  0.6124E+00  0.7710E+01
  5.254  0.6050E+00  0.7717E+01
  5.264  0.6038E+00  0.7723E+01
  5.274  0.6028E+00  0.7729E+01
  5.284  0.6015E+00  0.7735E+01
  5.294  0.5998E+00  0.7741E+01
  5.304  0.5977E+00  0.7747E+01
  5.314  0.5923E+00  0.7752E+01
  5.324  0.5841E+00  0.7758E+01
  5.334  0.5759E+00  0.7764E+01
  5.344  0.5677E+00  0.7770E+01
  5.354  0.5597E+00  0.7775E+01
  5.364  0.5516E+00  0.7781E+01
  5.374  0.5437E+00  0.7786E+01
  5.384  0.5557E+00  0.7792E+01
  5.394  0.5617E+00  0.7797E+01
  5.404  0.5610E+00  0.7803E+01
  5.414  0.5535E+00  0.7809E+01
  5.424  0.5393E+00  0.7814E+01
  5.434  0.5183E+00  0.7819E+01
  5.444  0.4918E+00  0.7824E+01
  5.454  0.4832E+00  0.7829E+01
  5.464  0.4742E+00  0.7834E+01
  5.474  0.4648E+00  0.7838E+01
  5.484  0.4550E+00  0.7843E+01
  5.494  0.4445E+00  0.7847E+01
  5.504  0.4333E+00  0.7852E+01
  5.514  0.4214E+00  0.7856E+01
  5.524  0.4089E+00  0.7860E+01
  5.534  0.3974E+00  0.7864E+01
  5.544  0.3906E+00  0.7868E+01
  5.554  0.3851E+00  0.7872E+01
  5.564  0.3828E+00  0.7876E+01
  5.574  0.3804E+00  0.7879E+01
  5.584  0.3779E+00  0.7883E+01
  5.594  0.3752E+00  0.7887E+01
  5.604  0.3725E+00  0.7891E+01
  5.614  0.3696E+00  0.7894E+01
  5.624  0.3666E+00  0.7898E+01
  5.634  0.3632E+00  0.7902E+01
  5.644  0.3571E+00  0.7905E+01
  5.654  0.3510E+00  0.7909E+01
  5.664  0.3448E+00  0.7912E+01
  5.674  0.3385E+00  0.7916E+01
  5.684  0.3321E+00  0.7919E+01
  5.694  0.3257E+00  0.7922E+01
  5.704  0.3192E+00  0.7925E+01
  5.714  0.3126E+00  0.7928E+01
  5.724  0.3060E+00  0.7931E+01
  5.734  0.2993E+00  0.7934E+01
  5.744  0.2925E+00  0.7937E+01
  5.754  0.2857E+00  0.7940E+01
  5.764  0.2788E+00  0.7943E+01
  5.774  0.2718E+00  0.7946E+01
  5.784  0.2648E+00  0.7948E+01
  5.794  0.2576E+00  0.7951E+01
  5.804  0.2501E+00  0.7953E+01
  5.814  0.2419E+00  0.7956E+01
  5.824  0.2335E+00  0.7958E+01
  5.834  0.2249E+00  0.7960E+01
  5.844  0.2163E+00  0.7963E+01
  5.854  0.2076E+00  0.7965E+01
  5.864  0.1988E+00  0.7967E+01
  5.874  0.1900E+00  0.7969E+01
  5.884  0.1813E+00  0.7970E+01
  5.894  0.1760E+00  0.7972E+01
  5.904  0.1707E+00  0.7974E+01
  5.914  0.1653E+00  0.7976E+01
  5.924  0.1599E+00  0.7977E+01
  5.934  0.1545E+00  0.7979E+01
  5.944  0.1490E+00  0.7980E+01
  5.954  0.1435E+00  0.7982E+01
  5.964  0.1380E+00  0.7983E+01
  5.974  0.1324E+00  0.7984E+01
  5.984  0.1269E+00  0.7986E+01
  5.994  0.1212E+00  0.7987E+01
  6.004  0.1156E+00  0.7988E+01
  6.014  0.1099E+00  0.7989E+01
  6.024  0.1043E+00  0.7990E+01
  6.034  0.9853E-01  0.7991E+01
  6.044  0.9277E-01  0.7992E+01
  6.054  0.8699E-01  0.7993E+01
  6.064  0.8118E-01  0.7994E+01
  6.074  0.7534E-01  0.7994E+01
  6.084  0.6947E-01  0.7995E+01
  6.094  0.6878E-01  0.7996E+01
  6.104  0.1135E+00  0.7997E+01
  6.114  0.8553E-01  0.7998E+01
  6.124  0.4217E-01  0.7998E+01
  6.134  0.3504E-01  0.7999E+01
  6.144  0.2857E-01  0.7999E+01
  6.154  0.2276E-01  0.7999E+01
  6.164  0.1761E-01  0.7999E+01
  6.174  0.1312E-01  0.7999E+01
  6.184  0.9288E-02  0.7999E+01
  6.194  0.6117E-02  0.8000E+01
  6.204  0.3606E-02  0.8000E+01
  6.214  0.1754E-02  0.8000E+01
  6.224  0.5626E-03  0.8000E+01
  6.234  0.3086E-04  0.8000E+01
  6.244  0.0000E+00  0.8000E+01
  6.254  0.0000E+00  0.8000E+01
  6.264  0.0000E+00  0.8000E+01
  6.274  0.0000E+00  0.8000E+01
  6.284  0.0000E+00  0.8000E+01
  6.294  0.0000E+00  0.8000E+01
  6.304  0.0000E+00  0.8000E+01
  6.314  0.0000E+00  0.8000E+01
  6.324  0.0000E+00  0.8000E+01
  6.334  0.0000E+00  0.8000E+01
  6.344  0.0000E+00  0.8000E+01
  6.354  0.0000E+00  0.8000E+01
  6.364  0.0000E+00  0.8000E+01
  6.374  0.0000E+00  0.8000E+01
  6.384  0.0000E+00  0.8000E+01
  6.394  0.0000E+00  0.8000E+01
  6.404  0.0000E+00  0.8000E+01
  6.414  0.0000E+00  0.8000E+01
  6.424  0.0000E+00  0.8000E+01
  6.434  0.0000E+00  0.8000E+01
  6.444  0.0000E+00  0.8000E+01
  6.454  0.0000E+00  0.8000E+01
  6.464  0.0000E+00  0.8000E+01
  6.474  0.0000E+00  0.8000E+01
  6.484  0.0000E+00  0.8000E+01
  6.494  0.0000E+00  0.8000E+01
  6.504  0.0000E+00  0.8000E+01
  6.514  0.0000E+00  0.8000E+01
  6.524  0.0000E+00  0.8000E+01
  6.534  0.0000E+00  0.8000E+01
  6.544  0.0000E+00  0.8000E+01
  6.554  0.0000E+00  0.8000E+01
  6.564  0.0000E+00  0.8000E+01
  6.574  0.0000E+00  0.8000E+01
  6.584  0.0000E+00  0.8000E+01
  6.594  0.0000E+00  0.8000E+01
  6.604  0.0000E+00  0.8000E+01
  6.614  0.0000E+00  0.8000E+01
  6.624  0.0000E+00  0.8000E+01
  6.634  0.0000E+00  0.8000E+01
  6.644  0.0000E+00  0.8000E+01
  6.654  0.0000E+00  0.8000E+01
  6.664  0.0000E+00  0.8000E+01
  6.674  0.0000E+00  0.8000E+01
  6.684  0.0000E+00  0.8000E+01
  6.694  0.0000E+00  0.8000E+01
  6.704  0.0000E+00  0.8000E+01
  6.714  0.0000E+00  0.8000E+01
  6.724  0.0000E+00  0.8000E+01
  6.734  0.0000E+00  0.8000E+01
  6.744  0.0000E+00  0.8000E+01
  6.754  0.0000E+00  0.8000E+01
  6.764  0.0000E+00  0.8000E+01
  6.774  0.0000E+00  0.8000E+01
  6.784  0.0000E+00  0.8000E+01
  6.794  0.0000E+00  0.8000E+01
  6.804  0.0000E+00  0.8000E+01
  6.814  0.3726E-05  0.8000E+01
  6.824  0.2901E-03  0.8000E+01
  6.834  0.1033E-02  0.8000E+01
  6.844  0.2232E-02  0.8000E+01
  6.854  0.3886E-02  0.8000E+01
  6.864  0.5998E-02  0.8000E+01
  6.874  0.8565E-02  0.8000E+01
  6.884  0.1159E-01  0.8000E+01
  6.894  0.1507E-01  0.8000E+01
  6.904  0.1900E-01  0.8000E+01
  6.914  0.2340E-01  0.8001E+01
  6.924  0.2824E-01  0.8001E+01
  6.934  0.3355E-01  0.8001E+01
  6.944  0.3931E-01  0.8002E+01
  6.954  0.4558E-01  0.8002E+01
  6.964  0.5345E-01  0.8003E+01
  6.974  0.6334E-01  0.8003E+01
  6.984  0.7529E-01  0.8004E+01
  6.994  0.8931E-01  0.8005E+01
  7.004  0.1054E+00  0.8006E+01
  7.014  0.1235E+00  0.8007E+01
  7.024  0.1281E+00  0.8008E+01
  7.034  0.1331E+00  0.8010E+01
  7.044  0.1384E+00  0.8011E+01
  7.054  0.1440E+00  0.8013E+01
  7.064  0.1500E+00  0.8014E+01
  7.074  0.1563E+00  0.8016E+01
  7.084  0.1629E+00  0.8017E+01
  7.094  0.1699E+00  0.8019E+01
  7.104  0.1772E+00  0.8021E+01
  7.114  0.1848E+00  0.8023E+01
  7.124  0.1928E+00  0.8024E+01
  7.134  0.1996E+00  0.8026E+01
  7.144  0.2048E+00  0.8029E+01
  7.154  0.2101E+00  0.8031E+01
  7.164  0.2156E+00  0.8033E+01
  7.174  0.2212E+00  0.8035E+01
  7.184  0.2269E+00  0.8037E+01
  7.194  0.2327E+00  0.8040E+01
  7.204  0.2385E+00  0.8042E+01
  7.214  0.2444E+00  0.8044E+01
  7.224  0.2503E+00  0.8047E+01
  7.234  0.2563E+00  0.8049E+01
  7.244  0.2623E+00  0.8052E+01
  7.254  0.2683E+00  0.8055E+01
  7.264  0.2744E+00  0.8058E+01
  7.274  0.2806E+00  0.8060E+01
  7.284  0.2868E+00  0.8063E+01
  7.294  0.2931E+00  0.8066E+01
  7.304  0.2994E+00  0.8069E+01
  7.314  0.3057E+00  0.8072E+01
  7.324  0.3120E+00  0.8075E+01
  7.334  0.3184E+00  0.8078E+01
  7.344  0.3247E+00  0.8082E+01
  7.354  0.3310E+00  0.8085E+01
  7.364  0.3374E+00  0.8088E+01
  7.374  0.3438E+00  0.8092E+01
  7.384  0.3509E+00  0.8095E+01
  7.394  0.3587E+00  0.8099E+01
  7.404  0.3673E+00  0.8103E+01
  7.414  0.3767E+00  0.8106E+01
  7.424  0.3870E+00  0.8110E+01
  7.434  0.3987E+00  0.8114E+01
  7.444  0.4117E+00  0.8118E+01
  7.454  0.4258E+00  0.8123E+01
  7.464  0.4342E+00  0.8127E+01
  7.474  0.4434E+00  0.8131E+01
  7.484  0.4531E+00  0.8136E+01
  7.494  0.4632E+00  0.8141E+01
  7.504  0.4739E+00  0.8145E+01
  7.514  0.4851E+00  0.8150E+01
  7.524  0.4969E+00  0.8155E+01
  7.534  0.5093E+00  0.8160E+01
  7.544  0.5222E+00  0.8165E+01
  7.554  0.5358E+00  0.8171E+01
  7.564  0.5525E+00  0.8176E+01
  7.574  0.6728E+00  0.8183E+01
  7.584  0.5196E+00  0.8188E+01
  7.594  0.5242E+00  0.8193E+01
  7.604  0.5287E+00  0.8199E+01
  7.614  0.5331E+00  0.8204E+01
  7.624  0.5374E+00  0.8209E+01
  7.634  0.5418E+00  0.8215E+01
  7.644  0.5470E+00  0.8220E+01
  7.654  0.5520E+00  0.8226E+01
  7.664  0.5568E+00  0.8231E+01
  7.674  0.5615E+00  0.8237E+01
  7.684  0.5661E+00  0.8243E+01
  7.694  0.5707E+00  0.8248E+01
  7.704  0.5754E+00  0.8254E+01
  7.714  0.5801E+00  0.8260E+01
  7.724  0.5848E+00  0.8266E+01
  7.734  0.5895E+00  0.8272E+01
  7.744  0.5943E+00  0.8278E+01
  7.754  0.5991E+00  0.8284E+01
  7.764  0.6041E+00  0.8290E+01
  7.774  0.6093E+00  0.8296E+01
  7.784  0.6149E+00  0.8302E+01
  7.794  0.6207E+00  0.8308E+01
  7.804  0.6269E+00  0.8314E+01
  7.814  0.6334E+00  0.8321E+01
  7.824  0.6400E+00  0.8327E+01
  7.834  0.6468E+00  0.8334E+01
  7.844  0.6536E+00  0.8340E+01
  7.854  0.6607E+00  0.8347E+01
  7.864  0.6678E+00  0.8353E+01
  7.874  0.6751E+00  0.8360E+01
  7.884  0.6825E+00  0.8367E+01
  7.894  0.6901E+00  0.8374E+01
  7.904  0.6978E+00  0.8381E+01
  7.914  0.7056E+00  0.8388E+01
  7.924  0.7136E+00  0.8395E+01
  7.934  0.7217E+00  0.8402E+01
  7.944  0.7299E+00  0.8410E+01
  7.954  0.7541E+00  0.8417E+01
  7.964  0.8099E+00  0.8425E+01
  7.974  0.8130E+00  0.8433E+01
  7.984  0.8170E+00  0.8442E+01
  7.994  0.8204E+00  0.8450E+01
  8.004  0.8233E+00  0.8458E+01
  8.014  0.8256E+00  0.8466E+01
  8.024  0.8273E+00  0.8475E+01
  8.034  0.8331E+00  0.8483E+01
  8.044  0.8441E+00  0.8491E+01
  8.054  0.8552E+00  0.8500E+01
  8.064  0.8664E+00  0.8509E+01
  8.074  0.8777E+00  0.8517E+01
  8.084  0.8891E+00  0.8526E+01
  8.094  0.9005E+00  0.8535E+01
  8.104  0.9116E+00  0.8544E+01
  8.114  0.9217E+00  0.8554E+01
  8.124  0.9326E+00  0.8563E+01
  8.134  0.9442E+00  0.8572E+01
  8.144  0.9561E+00  0.8582E+01
  8.154  0.9685E+00  0.8592E+01
  8.164  0.9813E+00  0.8601E+01
  8.174  0.9944E+00  0.8611E+01
  8.184  0.1008E+01  0.8621E+01
  8.194  0.1022E+01  0.8632E+01
  8.204  0.1036E+01  0.8642E+01
  8.214  0.1052E+01  0.8652E+01
  8.224  0.1071E+01  0.8663E+01
  8.234  0.1091E+01  0.8674E+01
  8.244  0.1114E+01  0.8685E+01
  8.254  0.1149E+01  0.8697E+01
  8.264  0.1220E+01  0.8709E+01
  8.274  0.1608E+01  0.8725E+01
  8.284  0.1567E+01  0.8741E+01
  8.294  0.1470E+01  0.8755E+01
  8.304  0.1496E+01  0.8770E+01
  8.314  0.1520E+01  0.8786E+01
  8.324  0.1542E+01  0.8801E+01
  8.334  0.1562E+01  0.8817E+01
  8.344  0.1580E+01  0.8832E+01
  8.354  0.1599E+01  0.8848E+01
  8.364  0.1616E+01  0.8865E+01
  8.374  0.1630E+01  0.8881E+01
  8.384  0.1641E+01  0.8897E+01
  8.394  0.1651E+01  0.8914E+01
  8.404  0.1658E+01  0.8930E+01
  8.414  0.1664E+01  0.8947E+01
  8.424  0.1669E+01  0.8964E+01
  8.434  0.1683E+01  0.8981E+01
  8.444  0.1698E+01  0.8997E+01
  8.454  0.1712E+01  0.9015E+01
  8.464  0.1727E+01  0.9032E+01
  8.474  0.1743E+01  0.9049E+01
  8.484  0.1758E+01  0.9067E+01
  8.494  0.1773E+01  0.9085E+01
  8.504  0.1789E+01  0.9103E+01
  8.514  0.1803E+01  0.9121E+01
  8.524  0.1821E+01  0.9139E+01
  8.534  0.1855E+01  0.9157E+01
  8.544  0.1995E+01  0.9177E+01
  8.554  0.2171E+01  0.9199E+01
  8.564  0.2159E+01  0.9221E+01
  8.574  0.2062E+01  0.9241E+01
  8.584  0.2053E+01  0.9262E+01
  8.594  0.2060E+01  0.9282E+01
  8.604  0.2066E+01  0.9303E+01
  8.614  0.2067E+01  0.9324E+01
  8.624  0.2064E+01  0.9344E+01
  8.634  0.2059E+01  0.9365E+01
  8.644  0.2051E+01  0.9385E+01
  8.654  0.2043E+01  0.9406E+01
  8.664  0.2033E+01  0.9426E+01
  8.674  0.2022E+01  0.9446E+01
  8.684  0.2010E+01  0.9466E+01
  8.694  0.1996E+01  0.9486E+01
  8.704  0.1980E+01  0.9506E+01
  8.714  0.1964E+01  0.9526E+01
  8.724  0.1947E+01  0.9545E+01
  8.734  0.1929E+01  0.9565E+01
  8.744  0.1909E+01  0.9584E+01
  8.754  0.1889E+01  0.9603E+01
  8.764  0.1868E+01  0.9621E+01
  8.774  0.1845E+01  0.9640E+01
  8.784  0.1821E+01  0.9658E+01
  8.794  0.1797E+01  0.9676E+01
  8.804  0.1769E+01  0.9694E+01
  8.814  0.1725E+01  0.9711E+01
  8.824  0.1679E+01  0.9728E+01
  8.834  0.1635E+01  0.9744E+01
  8.844  0.1585E+01  0.9760E+01
  8.854  0.1536E+01  0.9775E+01
  8.864  0.1500E+01  0.9790E+01
  8.874  0.1471E+01  0.9805E+01
  8.884  0.1443E+01  0.9819E+01
  8.894  0.1413E+01  0.9833E+01
  8.904  0.1383E+01  0.9847E+01
  8.914  0.1355E+01  0.9861E+01
  8.924  0.1327E+01  0.9874E+01
  8.934  0.1300E+01  0.9887E+01
  8.944  0.1274E+01  0.9900E+01
  8.954  0.1249E+01  0.9912E+01
  8.964  0.1225E+01  0.9925E+01
  8.974  0.1202E+01  0.9937E+01
  8.984  0.1180E+01  0.9948E+01
  8.994  0.1159E+01  0.9960E+01
  9.004  0.1139E+01  0.9971E+01
  9.014  0.1119E+01  0.9983E+01
  9.024  0.1099E+01  0.9994E+01
  9.034  0.1079E+01  0.1000E+02
  9.044  0.1060E+01  0.1001E+02
  9.054  0.1040E+01  0.1003E+02
  9.064  0.1026E+01  0.1004E+02
  9.074  0.1012E+01  0.1005E+02
  9.084  0.9984E+00  0.1006E+02
  9.094  0.9846E+00  0.1007E+02
  9.104  0.9710E+00  0.1008E+02
  9.114  0.9579E+00  0.1008E+02
  9.124  0.9453E+00  0.1009E+02
  9.134  0.9330E+00  0.1010E+02
  9.144  0.9212E+00  0.1011E+02
  9.154  0.9095E+00  0.1012E+02
  9.164  0.8980E+00  0.1013E+02
  9.174  0.8870E+00  0.1014E+02
  9.184  0.8765E+00  0.1015E+02
  9.194  0.8665E+00  0.1016E+02
  9.204  0.8571E+00  0.1017E+02
  9.214  0.8491E+00  0.1017E+02
  9.224  0.8441E+00  0.1018E+02
  9.234  0.8399E+00  0.1019E+02
  9.244  0.8363E+00  0.1020E+02
  9.254  0.8327E+00  0.1021E+02
  9.264  0.8292E+00  0.1022E+02
  9.274  0.8246E+00  0.1022E+02
  9.284  0.8205E+00  0.1023E+02
  9.294  0.8171E+00  0.1024E+02
  9.304  0.8143E+00  0.1025E+02
  9.314  0.8121E+00  0.1026E+02
  9.324  0.8105E+00  0.1027E+02
  9.334  0.8093E+00  0.1027E+02
  9.344  0.8084E+00  0.1028E+02
  9.354  0.8079E+00  0.1029E+02
  9.364  0.8116E+00  0.1030E+02
  9.374  0.8250E+00  0.1031E+02
  9.384  0.8405E+00  0.1031E+02
  9.394  0.8597E+00  0.1032E+02
  9.404  0.8876E+00  0.1033E+02
  9.414  0.9452E+00  0.1034E+02
  9.424  0.1060E+01  0.1035E+02
  9.434  0.1141E+01  0.1036E+02
  9.444  0.1203E+01  0.1038E+02
  9.454  0.1099E+01  0.1039E+02
  9.464  0.1142E+01  0.1040E+02
  9.474  0.1187E+01  0.1041E+02
  9.484  0.1236E+01  0.1042E+02
  9.494  0.1289E+01  0.1043E+02
  9.504  0.1346E+01  0.1045E+02
  9.514  0.1502E+01  0.1046E+02
  9.524  0.1567E+01  0.1048E+02
  9.534  0.1628E+01  0.1050E+02
  9.544  0.1670E+01  0.1051E+02
  9.554  0.1708E+01  0.1053E+02
  9.564  0.1741E+01  0.1055E+02
  9.574  0.1775E+01  0.1056E+02
  9.584  0.1807E+01  0.1058E+02
  9.594  0.1837E+01  0.1060E+02
  9.604  0.1864E+01  0.1062E+02
  9.614  0.1885E+01  0.1064E+02
  9.624  0.1901E+01  0.1066E+02
  9.634  0.1860E+01  0.1068E+02
  9.644  0.1881E+01  0.1069E+02
  9.654  0.1918E+01  0.1071E+02
  9.664  0.1957E+01  0.1073E+02
  9.674  0.1998E+01  0.1075E+02
  9.684  0.2041E+01  0.1077E+02
  9.694  0.2087E+01  0.1079E+02
  9.704  0.2135E+01  0.1082E+02
  9.714  0.2191E+01  0.1084E+02
  9.724  0.2285E+01  0.1086E+02
  9.734  0.2367E+01  0.1088E+02
  9.744  0.2277E+01  0.1091E+02
  9.754  0.2121E+01  0.1093E+02
  9.764  0.2035E+01  0.1095E+02
  9.774  0.1979E+01  0.1097E+02
  9.784  0.1930E+01  0.1099E+02
  9.794  0.1888E+01  0.1101E+02
  9.804  0.1889E+01  0.1103E+02
  9.814  0.1901E+01  0.1104E+02
  9.824  0.1916E+01  0.1106E+02
  9.834  0.1926E+01  0.1108E+02
  9.844  0.1930E+01  0.1110E+02
  9.854  0.1937E+01  0.1112E+02
  9.864  0.1940E+01  0.1114E+02
  9.874  0.1940E+01  0.1116E+02
  9.884  0.1938E+01  0.1118E+02
  9.894  0.1933E+01  0.1120E+02
  9.904  0.1925E+01  0.1122E+02
  9.914  0.1915E+01  0.1124E+02
  9.924  0.1901E+01  0.1126E+02
  9.934  0.1885E+01  0.1128E+02
  9.944  0.1873E+01  0.1129E+02
  9.954  0.1866E+01  0.1131E+02
  9.964  0.1862E+01  0.1133E+02
  9.974  0.1866E+01  0.1135E+02
  9.984  0.1870E+01  0.1137E+02
  9.994  0.1835E+01  0.1139E+02
 10.004  0.1796E+01  0.1140E+02
 10.014  0.1785E+01  0.1142E+02
 10.024  0.1774E+01  0.1144E+02
 10.034  0.1763E+01  0.1146E+02
 10.044  0.1752E+01  0.1148E+02
 10.054  0.1741E+01  0.1149E+02
 10.064  0.1729E+01  0.1151E+02
 10.074  0.1718E+01  0.1153E+02
 10.084  0.1707E+01  0.1154E+02
 10.094  0.1695E+01  0.1156E+02
 10.104  0.1683E+01  0.1158E+02
 10.114  0.1672E+01  0.1160E+02
 10.124  0.1660E+01  0.1161E+02
 10.134  0.1647E+01  0.1163E+02
 10.144  0.1636E+01  0.1164E+02
 10.154  0.1643E+01  0.1166E+02
 10.164  0.1684E+01  0.1168E+02
 10.174  0.1667E+01  0.1169E+02
 10.184  0.1594E+01  0.1171E+02
 10.194  0.1576E+01  0.1173E+02
 10.204  0.1560E+01  0.1174E+02
 10.214  0.1544E+01  0.1176E+02
 10.224  0.1528E+01  0.1177E+02
 10.234  0.1512E+01  0.1179E+02
 10.244  0.1496E+01  0.1180E+02
 10.254  0.1480E+01  0.1182E+02
 10.264  0.1464E+01  0.1183E+02
 10.274  0.1448E+01  0.1185E+02
 10.284  0.1432E+01  0.1186E+02
 10.294  0.1417E+01  0.1187E+02
 10.304  0.1402E+01  0.1189E+02
 10.314  0.1383E+01  0.1190E+02
 10.324  0.1363E+01  0.1192E+02
 10.334  0.1347E+01  0.1193E+02
 10.344  0.1338E+01  0.1194E+02
 10.354  0.1330E+01  0.1196E+02
 10.364  0.1322E+01  0.1197E+02
 10.374  0.1314E+01  0.1198E+02
 10.384  0.1307E+01  0.1200E+02
 10.394  0.1299E+01  0.1201E+02
 10.404  0.1292E+01  0.1202E+02
 10.414  0.1285E+01  0.1203E+02
 10.424  0.1279E+01  0.1205E+02
 10.434  0.1272E+01  0.1206E+02
 10.444  0.1266E+01  0.1207E+02
 10.454  0.1253E+01  0.1209E+02
 10.464  0.1244E+01  0.1210E+02
 10.474  0.1241E+01  0.1211E+02
 10.484  0.1243E+01  0.1212E+02
 10.494  0.1246E+01  0.1214E+02
 10.504  0.1251E+01  0.1215E+02
 10.514  0.1257E+01  0.1216E+02
 10.524  0.1229E+01  0.1217E+02
 10.534  0.1232E+01  0.1218E+02
 10.544  0.1231E+01  0.1220E+02
 10.554  0.1218E+01  0.1221E+02
 10.564  0.1206E+01  0.1222E+02
 10.574  0.1195E+01  0.1223E+02
 10.584  0.1185E+01  0.1225E+02
 10.594  0.1176E+01  0.1226E+02
 10.604  0.1168E+01  0.1227E+02
 10.614  0.1160E+01  0.1228E+02
 10.624  0.1154E+01  0.1229E+02
 10.634  0.1149E+01  0.1230E+02
 10.644  0.1145E+01  0.1231E+02
 10.654  0.1142E+01  0.1233E+02
 10.664  0.1142E+01  0.1234E+02
 10.674  0.1143E+01  0.1235E+02
 10.684  0.1146E+01  0.1236E+02
 10.694  0.1150E+01  0.1237E+02
 10.704  0.1156E+01  0.1238E+02
 10.714  0.1164E+01  0.1240E+02
 10.724  0.1178E+01  0.1241E+02
 10.734  0.1185E+01  0.1242E+02
 10.744  0.1179E+01  0.1243E+02
 10.754  0.1177E+01  0.1244E+02
 10.764  0.1182E+01  0.1245E+02
 10.774  0.1226E+01  0.1247E+02
 10.784  0.1307E+01  0.1248E+02
 10.794  0.1365E+01  0.1249E+02
 10.804  0.1379E+01  0.1251E+02
 10.814  0.1366E+01  0.1252E+02
 10.824  0.1349E+01  0.1253E+02
 10.834  0.1326E+01  0.1255E+02
 10.844  0.1299E+01  0.1256E+02
 10.854  0.1267E+01  0.1257E+02
 10.864  0.1234E+01  0.1259E+02
 10.874  0.1210E+01  0.1260E+02
 10.884  0.1188E+01  0.1261E+02
 10.894  0.1168E+01  0.1262E+02
 10.904  0.1149E+01  0.1263E+02
 10.914  0.1133E+01  0.1264E+02
 10.924  0.1118E+01  0.1266E+02
 10.934  0.1103E+01  0.1267E+02
 10.944  0.1089E+01  0.1268E+02
 10.954  0.1074E+01  0.1269E+02
 10.964  0.1059E+01  0.1270E+02
 10.974  0.1044E+01  0.1271E+02
 10.984  0.1029E+01  0.1272E+02
 10.994  0.1018E+01  0.1273E+02
 11.004  0.1016E+01  0.1274E+02
 11.014  0.1015E+01  0.1275E+02
 11.024  0.1012E+01  0.1276E+02
 11.034  0.1009E+01  0.1277E+02
 11.044  0.1003E+01  0.1278E+02
 11.054  0.9986E+00  0.1279E+02
 11.064  0.9951E+00  0.1280E+02
 11.074  0.9910E+00  0.1281E+02
 11.084  0.9870E+00  0.1282E+02
 11.094  0.1002E+01  0.1283E+02
 11.104  0.1022E+01  0.1284E+02
 11.114  0.1047E+01  0.1285E+02
 11.124  0.1077E+01  0.1286E+02
 11.134  0.1161E+01  0.1287E+02
 11.144  0.1200E+01  0.1288E+02
 11.154  0.1122E+01  0.1290E+02
 11.164  0.1121E+01  0.1291E+02
 11.174  0.1121E+01  0.1292E+02
 11.184  0.1121E+01  0.1293E+02
 11.194  0.1122E+01  0.1294E+02
 11.204  0.1124E+01  0.1295E+02
 11.214  0.1127E+01  0.1296E+02
 11.224  0.1133E+01  0.1297E+02
 11.234  0.1161E+01  0.1299E+02
 11.244  0.1185E+01  0.1300E+02
 11.254  0.1206E+01  0.1301E+02
 11.264  0.1222E+01  0.1302E+02
 11.274  0.1235E+01  0.1303E+02
 11.284  0.1244E+01  0.1305E+02
 11.294  0.1249E+01  0.1306E+02
 11.304  0.1248E+01  0.1307E+02
 11.314  0.1242E+01  0.1308E+02
 11.324  0.1231E+01  0.1310E+02
 11.334  0.1220E+01  0.1311E+02
 11.344  0.1218E+01  0.1312E+02
 11.354  0.1215E+01  0.1313E+02
 11.364  0.1213E+01  0.1315E+02
 11.374  0.1211E+01  0.1316E+02
 11.384  0.1209E+01  0.1317E+02
 11.394  0.1207E+01  0.1318E+02
 11.404  0.1206E+01  0.1319E+02
 11.414  0.1204E+01  0.1321E+02
 11.424  0.1202E+01  0.1322E+02
 11.434  0.1201E+01  0.1323E+02
 11.444  0.1200E+01  0.1324E+02
 11.454  0.1199E+01  0.1325E+02
 11.464  0.1198E+01  0.1327E+02
 11.474  0.1197E+01  0.1328E+02
 11.484  0.1196E+01  0.1329E+02
 11.494  0.1196E+01  0.1330E+02
 11.504  0.1195E+01  0.1331E+02
 11.514  0.1195E+01  0.1333E+02
 11.524  0.1194E+01  0.1334E+02
 11.534  0.1192E+01  0.1335E+02
 11.544  0.1190E+01  0.1336E+02
 11.554  0.1188E+01  0.1337E+02
 11.564  0.1186E+01  0.1339E+02
 11.574  0.1183E+01  0.1340E+02
 11.584  0.1181E+01  0.1341E+02
 11.594  0.1179E+01  0.1342E+02
 11.604  0.1177E+01  0.1343E+02
 11.614  0.1176E+01  0.1344E+02
 11.624  0.1174E+01  0.1346E+02
 11.634  0.1174E+01  0.1347E+02
 11.644  0.1173E+01  0.1348E+02
 11.654  0.1173E+01  0.1349E+02
 11.664  0.1174E+01  0.1350E+02
 11.674  0.1176E+01  0.1351E+02
 11.684  0.1177E+01  0.1353E+02
 11.694  0.1178E+01  0.1354E+02
 11.704  0.1178E+01  0.1355E+02
 11.714  0.1178E+01  0.1356E+02
 11.724  0.1176E+01  0.1357E+02
 11.734  0.1175E+01  0.1359E+02
 11.744  0.1176E+01  0.1360E+02
 11.754  0.1176E+01  0.1361E+02
 11.764  0.1177E+01  0.1362E+02
 11.774  0.1177E+01  0.1363E+02
 11.784  0.1178E+01  0.1364E+02
 11.794  0.1179E+01  0.1366E+02
 11.804  0.1180E+01  0.1367E+02
 11.814  0.1180E+01  0.1368E+02
 11.824  0.1181E+01  0.1369E+02
 11.834  0.1182E+01  0.1370E+02
 11.844  0.1182E+01  0.1371E+02
 11.854  0.1183E+01  0.1373E+02
 11.864  0.1183E+01  0.1374E+02
 11.874  0.1183E+01  0.1375E+02
 11.884  0.1181E+01  0.1376E+02
 11.894  0.1178E+01  0.1377E+02
 11.904  0.1175E+01  0.1379E+02
 11.914  0.1172E+01  0.1380E+02
 11.924  0.1168E+01  0.1381E+02
 11.934  0.1166E+01  0.1382E+02
 11.944  0.1167E+01  0.1383E+02
 11.954  0.1167E+01  0.1384E+02
 11.964  0.1166E+01  0.1386E+02
 11.974  0.1165E+01  0.1387E+02
 11.984  0.1164E+01  0.1388E+02
 11.994  0.1161E+01  0.1389E+02
 12.004  0.1157E+01  0.1390E+02
 12.014  0.1152E+01  0.1391E+02
 12.024  0.1145E+01  0.1393E+02
 12.034  0.1138E+01  0.1394E+02
 12.044  0.1130E+01  0.1395E+02
 12.054  0.1121E+01  0.1396E+02
 12.064  0.1111E+01  0.1397E+02
 12.074  0.1100E+01  0.1398E+02
 12.084  0.1088E+01  0.1399E+02
 12.094  0.1075E+01  0.1400E+02
 12.104  0.1061E+01  0.1401E+02
 12.114  0.1046E+01  0.1402E+02
 12.124  0.1031E+01  0.1403E+02
 12.134  0.1020E+01  0.1404E+02
 12.144  0.1011E+01  0.1405E+02
 12.154  0.1002E+01  0.1406E+02
 12.164  0.9937E+00  0.1407E+02
 12.174  0.9870E+00  0.1408E+02
 12.184  0.9823E+00  0.1409E+02
 12.194  0.9797E+00  0.1410E+02
 12.204  0.9791E+00  0.1411E+02
 12.214  0.9799E+00  0.1412E+02
 12.224  0.9818E+00  0.1413E+02
 12.234  0.9848E+00  0.1414E+02
 12.244  0.9615E+00  0.1415E+02
 12.254  0.9513E+00  0.1416E+02
 12.264  0.9419E+00  0.1417E+02
 12.274  0.9746E+00  0.1418E+02
 12.284  0.9365E+00  0.1419E+02
 12.294  0.8903E+00  0.1420E+02
 12.304  0.8825E+00  0.1421E+02
 12.314  0.8760E+00  0.1422E+02
 12.324  0.8708E+00  0.1423E+02
 12.334  0.8670E+00  0.1423E+02
 12.344  0.8607E+00  0.1424E+02
 12.354  0.8590E+00  0.1425E+02
 12.364  0.8584E+00  0.1426E+02
 12.374  0.8580E+00  0.1427E+02
 12.384  0.8579E+00  0.1428E+02
 12.394  0.8583E+00  0.1429E+02
 12.404  0.8591E+00  0.1429E+02
 12.414  0.8604E+00  0.1430E+02
 12.424  0.8622E+00  0.1431E+02
 12.434  0.8646E+00  0.1432E+02
 12.444  0.8673E+00  0.1433E+02
 12.454  0.8703E+00  0.1434E+02
 12.464  0.8736E+00  0.1435E+02
 12.474  0.8798E+00  0.1436E+02
 12.484  0.8894E+00  0.1436E+02
 12.494  0.9002E+00  0.1437E+02
 12.504  0.9120E+00  0.1438E+02
 12.514  0.9241E+00  0.1439E+02
 12.524  0.9360E+00  0.1440E+02
 12.534  0.9480E+00  0.1441E+02
 12.544  0.9599E+00  0.1442E+02
 12.554  0.9718E+00  0.1443E+02
 12.564  0.9837E+00  0.1444E+02
 12.574  0.9957E+00  0.1445E+02
 12.584  0.1008E+01  0.1446E+02
 12.594  0.1020E+01  0.1447E+02
 12.604  0.1032E+01  0.1448E+02
 12.614  0.1044E+01  0.1449E+02
 12.624  0.1056E+01  0.1450E+02
 12.634  0.1068E+01  0.1451E+02
 12.644  0.1080E+01  0.1452E+02
 12.654  0.1092E+01  0.1453E+02
 12.664  0.1104E+01  0.1454E+02
 12.674  0.1116E+01  0.1456E+02
 12.684  0.1128E+01  0.1457E+02
 12.694  0.1140E+01  0.1458E+02
 12.704  0.1154E+01  0.1459E+02
 12.714  0.1169E+01  0.1460E+02
 12.724  0.1177E+01  0.1461E+02
 12.734  0.1182E+01  0.1463E+02
 12.744  0.1193E+01  0.1464E+02
 12.754  0.1206E+01  0.1465E+02
 12.764  0.1218E+01  0.1466E+02
 12.774  0.1231E+01  0.1467E+02
 12.784  0.1244E+01  0.1469E+02
 12.794  0.1257E+01  0.1470E+02
 12.804  0.1271E+01  0.1471E+02
 12.814  0.1285E+01  0.1472E+02
 12.824  0.1301E+01  0.1474E+02
 12.834  0.1319E+01  0.1475E+02
 12.844  0.1337E+01  0.1476E+02
 12.854  0.1356E+01  0.1478E+02
 12.864  0.1372E+01  0.1479E+02
 12.874  0.1386E+01  0.1481E+02
 12.884  0.1399E+01  0.1482E+02
 12.894  0.1410E+01  0.1483E+02
 12.904  0.1418E+01  0.1485E+02
 12.914  0.1425E+01  0.1486E+02
 12.924  0.1433E+01  0.1488E+02
 12.934  0.1441E+01  0.1489E+02
 12.944  0.1449E+01  0.1490E+02
 12.954  0.1458E+01  0.1492E+02
 12.964  0.1463E+01  0.1493E+02
 12.974  0.1467E+01  0.1495E+02
 12.984  0.1471E+01  0.1496E+02
 12.994  0.1474E+01  0.1498E+02
 13.004  0.1476E+01  0.1499E+02
 13.014  0.1477E+01  0.1501E+02
 13.024  0.1478E+01  0.1502E+02
 13.034  0.1477E+01  0.1504E+02
 13.044  0.1476E+01  0.1505E+02
 13.054  0.1473E+01  0.1507E+02
 13.064  0.1470E+01  0.1508E+02
 13.074  0.1467E+01  0.1510E+02
 13.084  0.1462E+01  0.1511E+02
 13.094  0.1457E+01  0.1513E+02
 13.104  0.1452E+01  0.1514E+02
 13.114  0.1446E+01  0.1515E+02
 13.124  0.1441E+01  0.1517E+02
 13.134  0.1435E+01  0.1518E+02
 13.144  0.1429E+01  0.1520E+02
 13.154  0.1422E+01  0.1521E+02
 13.164  0.1416E+01  0.1523E+02
 13.174  0.1409E+01  0.1524E+02
 13.184  0.1402E+01  0.1525E+02
 13.194  0.1395E+01  0.1527E+02
 13.204  0.1387E+01  0.1528E+02
 13.214  0.1379E+01  0.1530E+02
 13.224  0.1371E+01  0.1531E+02
 13.234  0.1363E+01  0.1532E+02
 13.244  0.1354E+01  0.1534E+02
 13.254  0.1346E+01  0.1535E+02
 13.264  0.1336E+01  0.1536E+02
 13.274  0.1326E+01  0.1538E+02
 13.284  0.1316E+01  0.1539E+02
 13.294  0.1305E+01  0.1540E+02
 13.304  0.1294E+01  0.1542E+02
 13.314  0.1284E+01  0.1543E+02
 13.324  0.1272E+01  0.1544E+02
 13.334  0.1261E+01  0.1545E+02
